# lambda (micron)    fractional filter transmission phi(lambda)
6.151150	0.00007100
6.158460	0.00012400
6.165780	0.00018800
6.173120	0.00020600
6.180480	0.00018000
6.187860	0.00014700
6.195250	0.00009600
6.202660	0.00005000
6.210090	0.00008300
6.217530	0.00012300
6.225000	0.00014700
6.232480	0.00019800
6.239980	0.00022800
6.247500	0.00023100
6.255030	0.00023200
6.262590	0.00028700
6.270160	0.00047100
6.277750	0.00076800
6.285360	0.00118900
6.292990	0.00201600
6.300640	0.00336200
6.308300	0.00523900
6.315980	0.00790600
6.323690	0.01174000
6.331410	0.01626000
6.339150	0.02164000
6.346910	0.02857000
6.354690	0.03616000
6.362480	0.04395000
6.370300	0.05329000
6.378130	0.06244000
6.385990	0.07309000
6.393860	0.08594000
6.401760	0.10040000
6.409670	0.11290000
6.417600	0.12550000
6.425560	0.13780000
6.433530	0.14850000
6.441520	0.15890000
6.449530	0.16710000
6.457560	0.17400000
6.465610	0.17930000
6.473690	0.18480000
6.481780	0.18980000
6.489890	0.19710000
6.498020	0.20490000
6.506180	0.21170000
6.514350	0.21700000
6.522540	0.21990000
6.530760	0.22150000
6.539000	0.22400000
6.547250	0.22720000
6.555530	0.22950000
6.563830	0.23130000
6.572150	0.23260000
6.580490	0.23280000
6.588850	0.23290000
6.597230	0.23350000
6.605630	0.23310000
6.614060	0.23250000
6.622510	0.23010000
6.630980	0.22800000
6.639470	0.22610000
6.647980	0.22370000
6.656510	0.22260000
6.665070	0.22160000
6.673650	0.22200000
6.682250	0.22360000
6.690870	0.22620000
6.699510	0.22860000
6.708180	0.23100000
6.716870	0.23300000
6.725580	0.23470000
6.734320	0.23600000
6.743070	0.23720000
6.751850	0.23780000
6.760660	0.23930000
6.769480	0.24060000
6.778330	0.24180000
6.787200	0.24290000
6.796100	0.24400000
6.805020	0.24480000
6.813960	0.24610000
6.822930	0.24710000
6.831910	0.24810000
6.840930	0.24850000
6.849960	0.24910000
6.859030	0.24940000
6.868110	0.24920000
6.877220	0.24880000
6.886350	0.24830000
6.895510	0.24770000
6.904690	0.24730000
6.913900	0.24760000
6.923130	0.24850000
6.932380	0.24920000
6.941660	0.24910000
6.950970	0.24880000
6.960300	0.24790000
6.969650	0.24690000
6.979040	0.24500000
6.988440	0.24340000
6.997870	0.24240000
7.007330	0.24180000
7.016810	0.24180000
7.026320	0.24140000
7.035850	0.24100000
7.045410	0.24090000
7.055000	0.24030000
7.064610	0.23960000
7.074250	0.23920000
7.083910	0.23960000
7.093600	0.24030000
7.103320	0.24110000
7.113060	0.24180000
7.122830	0.24220000
7.132630	0.24210000
7.142460	0.24170000
7.152310	0.24130000
7.162190	0.24070000
7.172090	0.24080000
7.182030	0.24180000
7.191990	0.24330000
7.201980	0.24470000
7.211990	0.24600000
7.222040	0.24770000
7.232110	0.24930000
7.242210	0.24970000
7.252340	0.24940000
7.262500	0.24830000
7.272680	0.24620000
7.282900	0.24380000
7.293140	0.24270000
7.303410	0.24200000
7.313710	0.24280000
7.324040	0.24420000
7.334400	0.24680000
7.344790	0.24950000
7.355210	0.25260000
7.365660	0.25430000
7.376140	0.25560000
7.386640	0.25630000
7.397180	0.25560000
7.407750	0.25470000
7.418350	0.25370000
7.428970	0.25300000
7.439630	0.25390000
7.450320	0.25590000
7.461040	0.25910000
7.471790	0.26290000
7.482570	0.26650000
7.493390	0.27000000
7.504230	0.27280000
7.515110	0.27550000
7.526010	0.27780000
7.536950	0.27960000
7.547920	0.28090000
7.558930	0.28220000
7.569960	0.28300000
7.581030	0.28310000
7.592130	0.28260000
7.603260	0.28160000
7.614420	0.28130000
7.625620	0.28140000
7.636850	0.28210000
7.648120	0.28370000
7.659410	0.28570000
7.670740	0.28720000
7.682110	0.28810000
7.693510	0.28830000
7.704940	0.28720000
7.716400	0.28660000
7.727900	0.28570000
7.739440	0.28590000
7.751010	0.28670000
7.762610	0.28790000
7.774250	0.28910000
7.785920	0.29060000
7.797630	0.29230000
7.809370	0.29390000
7.821150	0.29530000
7.832970	0.29710000
7.844820	0.29900000
7.856700	0.30070000
7.868620	0.30160000
7.880580	0.30220000
7.892580	0.30140000
7.904610	0.30020000
7.916680	0.29800000
7.928780	0.29610000
7.940920	0.29520000
7.953100	0.29480000
7.965320	0.29570000
7.977570	0.29670000
7.989870	0.29770000
8.002200	0.29900000
8.014560	0.30020000
8.026970	0.30130000
8.039420	0.30240000
8.051900	0.30320000
8.064420	0.30500000
8.076980	0.30610000
8.089580	0.30800000
8.102220	0.30890000
8.114900	0.30900000
8.127620	0.30910000
8.140380	0.30860000
8.153180	0.30810000
8.166020	0.30790000
8.178900	0.30850000
8.191820	0.30950000
8.204780	0.31130000
8.217790	0.31270000
8.230830	0.31370000
8.243920	0.31370000
8.257040	0.31370000
8.270210	0.31340000
8.283420	0.31280000
8.296680	0.31250000
8.309970	0.31280000
8.323310	0.31250000
8.336690	0.31190000
8.350120	0.31080000
8.363590	0.30990000
8.377100	0.30940000
8.390650	0.30950000
8.404250	0.31010000
8.417890	0.31170000
8.431580	0.31300000
8.445310	0.31360000
8.459090	0.31400000
8.472910	0.31370000
8.486780	0.31240000
8.500690	0.31130000
8.514650	0.31090000
8.528660	0.31120000
8.542710	0.31120000
8.556800	0.31170000
8.570950	0.31260000
8.585140	0.31220000
8.599380	0.31210000
8.613660	0.31020000
8.627990	0.30850000
8.642370	0.30600000
8.656800	0.30260000
8.671280	0.29810000
8.685800	0.29430000
8.700370	0.29090000
8.715000	0.28920000
8.729670	0.28980000
8.744390	0.29160000
8.759160	0.29380000
8.773980	0.29580000
8.788850	0.29730000
8.803770	0.29840000
8.818750	0.29810000
8.833770	0.29650000
8.848850	0.29390000
8.863970	0.29140000
8.879150	0.28890000
8.894380	0.28750000
8.909660	0.28570000
8.925000	0.28410000
8.940380	0.28270000
8.955830	0.28060000
8.971320	0.27810000
8.986870	0.27560000
9.002470	0.27370000
9.018130	0.27130000
9.033840	0.26860000
9.049600	0.26590000
9.065430	0.26410000
9.081300	0.26160000
9.097230	0.25780000
9.113220	0.25360000
9.129270	0.24970000
9.145370	0.24290000
9.161520	0.23450000
9.177740	0.22420000
9.194010	0.21410000
9.210340	0.20150000
9.226730	0.18980000
9.243180	0.17740000
9.259680	0.16530000
9.276250	0.15340000
9.292870	0.14370000
9.309560	0.13340000
9.326300	0.12350000
9.343100	0.11320000
9.359970	0.10220000
9.376900	0.09073000
9.393880	0.07915000
9.410930	0.06783000
9.428040	0.05607000
9.445220	0.04578000
9.462450	0.03604000
9.479750	0.02739000
9.497110	0.02015000
9.514540	0.01445000
9.532030	0.01021000
9.549580	0.00723400
9.567200	0.00491000
9.584890	0.00329100
9.602640	0.00230000
9.620450	0.00161600
9.638330	0.00114400
9.656280	0.00081800
9.674300	0.00051000
9.692380	0.00027900
9.710530	0.00016600
9.728750	0.00011800
9.747040	0.00009000
9.765390	0.00011500
9.783820	0.00013400
9.802310	0.00006600
9.820880	0.00004800
9.839510	0.00009500
9.858220	0.00010200
9.877000	0.00016400
9.895850	0.00029900
9.914770	0.00033400
9.933760	0.00032500
9.952830	0.00032000
9.971970	0.00027600
9.991180	0.00029100
10.010500	0.00027400
10.029800	0.00016100
10.049300	0.00015700
10.068800	0.00020800
10.088400	0.00018800
10.108000	0.00014500
10.127800	0.00016000
10.147600	0.00023300
10.167500	0.00028900
10.187500	0.00026400
10.207500	0.00018200
10.227700	0.00008800
10.247900	0.00004700
10.268200	0.00011400
10.288500	0.00021300
10.309000	0.00024500
10.329500	0.00021400
10.350100	0.00019600
10.370800	0.00020200
10.391600	0.00023000
10.412500	0.00027300
10.433400	0.00027100
10.454500	0.00025900
10.475600	0.00025200
10.496800	0.00019000
