# lambda (micron)    fractional filter transmission phi(lambda)
1.959200	0.00420000
1.959600	0.00460000
1.960000	0.00490000
1.960400	0.00500000
1.960800	0.00500000
1.961200	0.00490000
1.961600	0.00490000
1.961900	0.00470000
1.962300	0.00430000
1.962700	0.00380000
1.963100	0.00330000
1.963500	0.00290000
1.963900	0.00280000
1.964300	0.00310000
1.964600	0.00390000
1.965000	0.00510000
1.965400	0.00620000
1.965800	0.00680000
1.966200	0.00660000
1.966600	0.00570000
1.967000	0.00460000
1.967300	0.00390000
1.967700	0.00360000
1.968100	0.00360000
1.968500	0.00370000
1.968900	0.00380000
1.969300	0.00410000
1.969700	0.00450000
1.970100	0.00500000
1.970400	0.00560000
1.970800	0.00600000
1.971200	0.00630000
1.971600	0.00650000
1.972000	0.00670000
1.972400	0.00680000
1.972800	0.00680000
1.973200	0.00690000
1.973600	0.00720000
1.973900	0.00770000
1.974300	0.00810000
1.974700	0.00820000
1.975100	0.00780000
1.975500	0.00740000
1.975900	0.00730000
1.976300	0.00770000
1.976700	0.00820000
1.977100	0.00870000
1.977500	0.00870000
1.977800	0.00860000
1.978200	0.00850000
1.978600	0.00860000
1.979000	0.00880000
1.979400	0.00880000
1.979800	0.00880000
1.980200	0.00870000
1.980600	0.00880000
1.981000	0.00930000
1.981400	0.00990000
1.981800	0.01070000
1.982200	0.01160000
1.982600	0.01260000
1.982900	0.01350000
1.983300	0.01430000
1.983700	0.01480000
1.984100	0.01510000
1.984500	0.01540000
1.984900	0.01600000
1.985300	0.01660000
1.985700	0.01730000
1.986100	0.01800000
1.986500	0.01870000
1.986900	0.01930000
1.987300	0.01980000
1.987700	0.02010000
1.988100	0.02020000
1.988500	0.02020000
1.988900	0.02030000
1.989300	0.02070000
1.989700	0.02130000
1.990000	0.02200000
1.990400	0.02270000
1.990800	0.02350000
1.991200	0.02450000
1.991600	0.02560000
1.992000	0.02670000
1.992400	0.02760000
1.992800	0.02850000
1.993200	0.02950000
1.993600	0.03070000
1.994000	0.03190000
1.994400	0.03310000
1.994800	0.03400000
1.995200	0.03490000
1.995600	0.03570000
1.996000	0.03690000
1.996400	0.03820000
1.996800	0.03960000
1.997200	0.04110000
1.997600	0.04270000
1.998000	0.04460000
1.998400	0.04680000
1.998800	0.04900000
1.999200	0.05090000
1.999600	0.05250000
2.000000	0.05400000
2.000400	0.05550000
2.000800	0.05730000
2.001200	0.05920000
2.001600	0.06110000
2.002000	0.06300000
2.002400	0.06510000
2.002800	0.06760000
2.003200	0.07040000
2.003600	0.07350000
2.004000	0.07650000
2.004400	0.07950000
2.004800	0.08240000
2.005200	0.08540000
2.005600	0.08850000
2.006000	0.09160000
2.006400	0.09490000
2.006800	0.09840000
2.007200	0.10190000
2.007600	0.10560000
2.008000	0.10940000
2.008400	0.11350000
2.008800	0.11810000
2.009200	0.12330000
2.009600	0.12870000
2.010100	0.13400000
2.010500	0.13900000
2.010900	0.14370000
2.011300	0.14860000
2.011700	0.15420000
2.012100	0.16040000
2.012500	0.16680000
2.012900	0.17330000
2.013300	0.17960000
2.013700	0.18610000
2.014100	0.19290000
2.014500	0.19990000
2.014900	0.20710000
2.015300	0.21460000
2.015700	0.22260000
2.016100	0.23110000
2.016500	0.23990000
2.016900	0.24860000
2.017300	0.25700000
2.017800	0.26530000
2.018200	0.27380000
2.018600	0.28300000
2.019000	0.29270000
2.019400	0.30230000
2.019800	0.31180000
2.020200	0.32120000
2.020600	0.33070000
2.021000	0.34080000
2.021400	0.35110000
2.021800	0.36150000
2.022200	0.37210000
2.022700	0.38280000
2.023100	0.39350000
2.023500	0.40400000
2.023900	0.41440000
2.024300	0.42480000
2.024700	0.43560000
2.025100	0.44710000
2.025500	0.45860000
2.025900	0.46990000
2.026300	0.48070000
2.026800	0.49120000
2.027200	0.50200000
2.027600	0.51310000
2.028000	0.52410000
2.028400	0.53470000
2.028800	0.54500000
2.029200	0.55510000
2.029600	0.56520000
2.030000	0.57500000
2.030500	0.58400000
2.030900	0.59250000
2.031300	0.60090000
2.031700	0.60960000
2.032100	0.61840000
2.032500	0.62690000
2.032900	0.63460000
2.033300	0.64200000
2.033800	0.64970000
2.034200	0.65750000
2.034600	0.66500000
2.035000	0.67170000
2.035400	0.67750000
2.035800	0.68300000
2.036200	0.68870000
2.036700	0.69440000
2.037100	0.69990000
2.037500	0.70490000
2.037900	0.70950000
2.038300	0.71440000
2.038700	0.71970000
2.039200	0.72470000
2.039600	0.72910000
2.040000	0.73300000
2.040400	0.73670000
2.040800	0.74060000
2.041200	0.74430000
2.041600	0.74730000
2.042100	0.74970000
2.042500	0.75230000
2.042900	0.75500000
2.043300	0.75790000
2.043700	0.76040000
2.044200	0.76180000
2.044600	0.76310000
2.045000	0.76490000
2.045400	0.76730000
2.045800	0.77010000
2.046200	0.77250000
2.046700	0.77420000
2.047100	0.77580000
2.047500	0.77760000
2.047900	0.77940000
2.048300	0.78080000
2.048800	0.78180000
2.049200	0.78270000
2.049600	0.78400000
2.050000	0.78600000
2.050400	0.78780000
2.050900	0.78910000
2.051300	0.79010000
2.051700	0.79100000
2.052100	0.79240000
2.052500	0.79380000
2.053000	0.79450000
2.053400	0.79470000
2.053800	0.79500000
2.054200	0.79580000
2.054700	0.79740000
2.055100	0.79910000
2.055500	0.80040000
2.055900	0.80130000
2.056300	0.80250000
2.056800	0.80390000
2.057200	0.80520000
2.057600	0.80630000
2.058000	0.80690000
2.058500	0.80770000
2.058900	0.80900000
2.059300	0.81040000
2.059700	0.81140000
2.060200	0.81200000
2.060600	0.81230000
2.061000	0.81300000
2.061400	0.81410000
2.061900	0.81500000
2.062300	0.81550000
2.062700	0.81590000
2.063100	0.81640000
2.063600	0.81760000
2.064000	0.81910000
2.064400	0.82030000
2.064800	0.82130000
2.065300	0.82270000
2.065700	0.82410000
2.066100	0.82550000
2.066500	0.82640000
2.067000	0.82640000
2.067400	0.82650000
2.067800	0.82760000
2.068300	0.82960000
2.068700	0.83190000
2.069100	0.83350000
2.069500	0.83420000
2.070000	0.83480000
2.070400	0.83600000
2.070800	0.83750000
2.071300	0.83890000
2.071700	0.83990000
2.072100	0.84060000
2.072500	0.84190000
2.073000	0.84360000
2.073400	0.84490000
2.073800	0.84540000
2.074300	0.84530000
2.074700	0.84520000
2.075100	0.84600000
2.075600	0.84750000
2.076000	0.84880000
2.076400	0.84980000
2.076800	0.85060000
2.077300	0.85120000
2.077700	0.85190000
2.078100	0.85240000
2.078600	0.85240000
2.079000	0.85250000
2.079400	0.85310000
2.079900	0.85410000
2.080300	0.85510000
2.080700	0.85540000
2.081200	0.85510000
2.081600	0.85520000
2.082000	0.85610000
2.082500	0.85760000
2.082900	0.85890000
2.083300	0.85970000
2.083800	0.85980000
2.084200	0.86010000
2.084600	0.86090000
2.085100	0.86140000
2.085500	0.86150000
2.085900	0.86130000
2.086400	0.86120000
2.086800	0.86160000
2.087200	0.86230000
2.087700	0.86250000
2.088100	0.86230000
2.088600	0.86210000
2.089000	0.86220000
2.089400	0.86280000
2.089900	0.86320000
2.090300	0.86300000
2.090700	0.86250000
2.091200	0.86260000
2.091600	0.86310000
2.092100	0.86410000
2.092500	0.86480000
2.092900	0.86470000
2.093400	0.86450000
2.093800	0.86450000
2.094200	0.86470000
2.094700	0.86480000
2.095100	0.86480000
2.095600	0.86470000
2.096000	0.86510000
2.096400	0.86580000
2.096900	0.86630000
2.097300	0.86620000
2.097800	0.86590000
2.098200	0.86570000
2.098600	0.86590000
2.099100	0.86620000
2.099500	0.86580000
2.100000	0.86490000
2.100400	0.86420000
2.100800	0.86410000
2.101300	0.86490000
2.101700	0.86570000
2.102200	0.86590000
2.102600	0.86590000
2.103000	0.86600000
2.103500	0.86630000
2.103900	0.86660000
2.104400	0.86630000
2.104800	0.86530000
2.105300	0.86450000
2.105700	0.86460000
2.106100	0.86500000
2.106600	0.86520000
2.107000	0.86480000
2.107500	0.86380000
2.107900	0.86330000
2.108400	0.86360000
2.108800	0.86380000
2.109300	0.86370000
2.109700	0.86300000
2.110100	0.86230000
2.110600	0.86240000
2.111000	0.86310000
2.111500	0.86360000
2.111900	0.86360000
2.112400	0.86310000
2.112800	0.86260000
2.113300	0.86270000
2.113700	0.86300000
2.114200	0.86300000
2.114600	0.86290000
2.115100	0.86290000
2.115500	0.86300000
2.116000	0.86310000
2.116400	0.86300000
2.116900	0.86240000
2.117300	0.86190000
2.117700	0.86190000
2.118200	0.86210000
2.118600	0.86210000
2.119100	0.86190000
2.119500	0.86130000
2.120000	0.86120000
2.120400	0.86150000
2.120900	0.86170000
2.121300	0.86160000
2.121800	0.86130000
2.122200	0.86100000
2.122700	0.86130000
2.123100	0.86190000
2.123600	0.86220000
2.124000	0.86220000
2.124500	0.86230000
2.124900	0.86260000
2.125400	0.86340000
2.125900	0.86390000
2.126300	0.86380000
2.126800	0.86320000
2.127200	0.86260000
2.127700	0.86230000
2.128100	0.86230000
2.128600	0.86220000
2.129000	0.86200000
2.129500	0.86230000
2.129900	0.86310000
2.130400	0.86390000
2.130800	0.86450000
2.131300	0.86460000
2.131700	0.86430000
2.132200	0.86450000
2.132700	0.86510000
2.133100	0.86550000
2.133600	0.86550000
2.134000	0.86510000
2.134500	0.86480000
2.134900	0.86530000
2.135400	0.86620000
2.135800	0.86690000
2.136300	0.86730000
2.136800	0.86750000
2.137200	0.86800000
2.137700	0.86890000
2.138100	0.86980000
2.138600	0.87000000
2.139000	0.87000000
2.139500	0.87020000
2.140000	0.87070000
2.140400	0.87150000
2.140900	0.87190000
2.141300	0.87180000
2.141800	0.87180000
2.142200	0.87190000
2.142700	0.87200000
2.143200	0.87170000
2.143600	0.87080000
2.144100	0.86980000
2.144500	0.86960000
2.145000	0.87040000
2.145500	0.87160000
2.145900	0.87280000
2.146400	0.87340000
2.146800	0.87380000
2.147300	0.87440000
2.147800	0.87510000
2.148200	0.87540000
2.148700	0.87530000
2.149200	0.87520000
2.149600	0.87530000
2.150100	0.87600000
2.150500	0.87670000
2.151000	0.87690000
2.151500	0.87680000
2.151900	0.87690000
2.152400	0.87740000
2.152900	0.87810000
2.153300	0.87860000
2.153800	0.87860000
2.154200	0.87870000
2.154700	0.87920000
2.155200	0.87970000
2.155600	0.88010000
2.156100	0.88010000
2.156600	0.87980000
2.157000	0.88010000
2.157500	0.88090000
2.158000	0.88150000
2.158400	0.88170000
2.158900	0.88140000
2.159400	0.88090000
2.159800	0.88080000
2.160300	0.88110000
2.160800	0.88110000
2.161200	0.88100000
2.161700	0.88080000
2.162200	0.88070000
2.162600	0.88120000
2.163100	0.88160000
2.163600	0.88140000
2.164000	0.88100000
2.164500	0.88070000
2.165000	0.88060000
2.165400	0.88080000
2.165900	0.88080000
2.166400	0.88060000
2.166800	0.88060000
2.167300	0.88100000
2.167800	0.88140000
2.168300	0.88160000
2.168700	0.88120000
2.169200	0.88050000
2.169700	0.88010000
2.170100	0.88010000
2.170600	0.88000000
2.171100	0.87950000
2.171600	0.87880000
2.172000	0.87820000
2.172500	0.87840000
2.173000	0.87900000
2.173400	0.87910000
2.173900	0.87860000
2.174400	0.87770000
2.174900	0.87680000
2.175300	0.87650000
2.175800	0.87640000
2.176300	0.87610000
2.176800	0.87580000
2.177200	0.87570000
2.177700	0.87580000
2.178200	0.87580000
2.178600	0.87540000
2.179100	0.87440000
2.179600	0.87360000
2.180100	0.87330000
2.180500	0.87340000
2.181000	0.87360000
2.181500	0.87350000
2.182000	0.87320000
2.182500	0.87310000
2.182900	0.87310000
2.183400	0.87270000
2.183900	0.87180000
2.184400	0.87050000
2.184800	0.86930000
2.185300	0.86880000
2.185800	0.86880000
2.186300	0.86840000
2.186700	0.86760000
2.187200	0.86670000
2.187700	0.86600000
2.188200	0.86570000
2.188700	0.86530000
2.189100	0.86440000
2.189600	0.86320000
2.190100	0.86250000
2.190600	0.86210000
2.191100	0.86210000
2.191500	0.86170000
2.192000	0.86080000
2.192500	0.86000000
2.193000	0.85950000
2.193500	0.85940000
2.193900	0.85930000
2.194400	0.85880000
2.194900	0.85790000
2.195400	0.85720000
2.195900	0.85680000
2.196400	0.85610000
2.196800	0.85500000
2.197300	0.85370000
2.197800	0.85260000
2.198300	0.85240000
2.198800	0.85290000
2.199300	0.85330000
2.199700	0.85330000
2.200200	0.85330000
2.200700	0.85360000
2.201200	0.85420000
2.201700	0.85470000
2.202200	0.85440000
2.202600	0.85350000
2.203100	0.85260000
2.203600	0.85200000
2.204100	0.85180000
2.204600	0.85150000
2.205100	0.85080000
2.205600	0.85030000
2.206000	0.85030000
2.206500	0.85060000
2.207000	0.85080000
2.207500	0.85060000
2.208000	0.85020000
2.208500	0.85010000
2.209000	0.85040000
2.209500	0.85050000
2.209900	0.85020000
2.210400	0.84960000
2.210900	0.84920000
2.211400	0.84990000
2.211900	0.85120000
2.212400	0.85230000
2.212900	0.85290000
2.213400	0.85280000
2.213900	0.85270000
2.214300	0.85300000
2.214800	0.85350000
2.215300	0.85380000
2.215800	0.85430000
2.216300	0.85500000
2.216800	0.85610000
2.217300	0.85710000
2.217800	0.85760000
2.218300	0.85730000
2.218800	0.85710000
2.219300	0.85740000
2.219800	0.85810000
2.220200	0.85890000
2.220700	0.85910000
2.221200	0.85900000
2.221700	0.85940000
2.222200	0.86050000
2.222700	0.86170000
2.223200	0.86260000
2.223700	0.86280000
2.224200	0.86280000
2.224700	0.86340000
2.225200	0.86450000
2.225700	0.86550000
2.226200	0.86640000
2.226700	0.86710000
2.227200	0.86790000
2.227700	0.86910000
2.228200	0.87010000
2.228700	0.87040000
2.229200	0.87030000
2.229700	0.87040000
2.230200	0.87070000
2.230600	0.87130000
2.231100	0.87170000
2.231600	0.87140000
2.232100	0.87140000
2.232600	0.87200000
2.233100	0.87300000
2.233600	0.87390000
2.234100	0.87410000
2.234600	0.87390000
2.235100	0.87400000
2.235600	0.87470000
2.236100	0.87510000
2.236600	0.87480000
2.237100	0.87360000
2.237600	0.87220000
2.238100	0.87170000
2.238600	0.87210000
2.239100	0.87250000
2.239600	0.87270000
2.240100	0.87260000
2.240600	0.87250000
2.241100	0.87290000
2.241600	0.87310000
2.242200	0.87250000
2.242700	0.87150000
2.243200	0.87060000
2.243700	0.87030000
2.244200	0.87050000
2.244700	0.87050000
2.245200	0.86960000
2.245700	0.86870000
2.246200	0.86830000
2.246700	0.86840000
2.247200	0.86850000
2.247700	0.86800000
2.248200	0.86680000
2.248700	0.86610000
2.249200	0.86620000
2.249700	0.86660000
2.250200	0.86690000
2.250700	0.86650000
2.251200	0.86570000
2.251700	0.86550000
2.252300	0.86570000
2.252800	0.86570000
2.253300	0.86520000
2.253800	0.86410000
2.254300	0.86320000
2.254800	0.86320000
2.255300	0.86350000
2.255800	0.86350000
2.256300	0.86300000
2.256800	0.86230000
2.257300	0.86190000
2.257800	0.86210000
2.258400	0.86240000
2.258900	0.86220000
2.259400	0.86210000
2.259900	0.86240000
2.260400	0.86310000
2.260900	0.86390000
2.261400	0.86410000
2.261900	0.86360000
2.262400	0.86340000
2.263000	0.86350000
2.263500	0.86390000
2.264000	0.86430000
2.264500	0.86430000
2.265000	0.86430000
2.265500	0.86500000
2.266000	0.86620000
2.266500	0.86720000
2.267100	0.86780000
2.267600	0.86820000
2.268100	0.86870000
2.268600	0.86980000
2.269100	0.87080000
2.269600	0.87080000
2.270100	0.87040000
2.270700	0.87000000
2.271200	0.87020000
2.271700	0.87120000
2.272200	0.87180000
2.272700	0.87160000
2.273200	0.87110000
2.273800	0.87080000
2.274300	0.87060000
2.274800	0.87030000
2.275300	0.86900000
2.275800	0.86670000
2.276300	0.86450000
2.276900	0.86280000
2.277400	0.86140000
2.277900	0.85980000
2.278400	0.85710000
2.278900	0.85390000
2.279500	0.85080000
2.280000	0.84780000
2.280500	0.84410000
2.281000	0.83950000
2.281500	0.83370000
2.282100	0.82760000
2.282600	0.82180000
2.283100	0.81590000
2.283600	0.80920000
2.284100	0.80150000
2.284700	0.79300000
2.285200	0.78420000
2.285700	0.77560000
2.286200	0.76660000
2.286800	0.75680000
2.287300	0.74650000
2.287800	0.73590000
2.288300	0.72500000
2.288900	0.71370000
2.289400	0.70160000
2.289900	0.68870000
2.290400	0.67570000
2.291000	0.66300000
2.291500	0.65020000
2.292000	0.63710000
2.292500	0.62350000
2.293100	0.60940000
2.293600	0.59560000
2.294100	0.58170000
2.294600	0.56750000
2.295200	0.55300000
2.295700	0.53850000
2.296200	0.52430000
2.296700	0.51070000
2.297300	0.49730000
2.297800	0.48360000
2.298300	0.46960000
2.298900	0.45570000
2.299400	0.44220000
2.299900	0.42940000
2.300400	0.41670000
2.301000	0.40350000
2.301500	0.39010000
2.302000	0.37690000
2.302600	0.36410000
2.303100	0.35210000
2.303600	0.34070000
2.304100	0.32950000
2.304700	0.31880000
2.305200	0.30830000
2.305700	0.29780000
2.306300	0.28750000
2.306800	0.27720000
2.307300	0.26710000
2.307900	0.25750000
2.308400	0.24830000
2.308900	0.23930000
2.309500	0.23050000
2.310000	0.22190000
2.310500	0.21370000
2.311100	0.20590000
2.311600	0.19840000
2.312100	0.19120000
2.312700	0.18410000
2.313200	0.17730000
2.313700	0.17060000
2.314300	0.16420000
2.314800	0.15780000
2.315400	0.15140000
2.315900	0.14510000
2.316400	0.13890000
2.317000	0.13300000
2.317500	0.12760000
2.318000	0.12260000
2.318600	0.11800000
2.319100	0.11360000
2.319600	0.10930000
2.320200	0.10500000
2.320700	0.10090000
2.321300	0.09690000
2.321800	0.09320000
2.322300	0.08960000
2.322900	0.08590000
2.323400	0.08240000
2.324000	0.07900000
2.324500	0.07610000
2.325000	0.07340000
2.325600	0.07060000
2.326100	0.06760000
2.326700	0.06440000
2.327200	0.06120000
2.327700	0.05830000
2.328300	0.05570000
2.328800	0.05330000
2.329400	0.05090000
2.329900	0.04850000
2.330500	0.04630000
2.331000	0.04450000
2.331500	0.04290000
2.332100	0.04150000
2.332600	0.04010000
2.333200	0.03870000
2.333700	0.03720000
2.334300	0.03560000
2.334800	0.03400000
2.335400	0.03220000
2.335900	0.03040000
2.336400	0.02880000
2.337000	0.02750000
2.337500	0.02650000
2.338100	0.02550000
2.338600	0.02440000
2.339200	0.02330000
2.339700	0.02220000
2.340300	0.02110000
2.340800	0.02010000
2.341400	0.01910000
2.341900	0.01830000
2.342500	0.01780000
2.343000	0.01740000
2.343600	0.01710000
2.344100	0.01670000
2.344700	0.01580000
2.345200	0.01490000
2.345800	0.01400000
2.346300	0.01340000
2.346900	0.01310000
2.347400	0.01280000
2.348000	0.01240000
2.348500	0.01170000
2.349100	0.01100000
2.349600	0.01040000
2.350200	0.00990000
2.350700	0.00950000
2.351300	0.00920000
2.351800	0.00880000
2.352400	0.00860000
2.352900	0.00850000
2.353500	0.00850000
2.354000	0.00840000
2.354600	0.00810000
2.355200	0.00750000
2.355700	0.00680000
2.356300	0.00610000
2.356800	0.00560000
2.357400	0.00530000
2.357900	0.00510000
2.358500	0.00520000
2.359000	0.00520000
2.359600	0.00540000
2.360200	0.00540000
2.360700	0.00540000
2.361300	0.00520000
2.361800	0.00490000
2.362400	0.00460000
2.362900	0.00420000
